  
       XFOIL         Version 6.99
  
 Calculated polar for: NASA/LANGLEY LS(1)-0413 (GA(W)-2) AIRFOIL       
  
 1 1 Reynolds number fixed          Mach number fixed         
  
 xtrf =   1.000 (top)        1.000 (bottom)  
 Mach =   0.000     Re =     0.500 e 6     Ncrit =   9.000
  
   alpha    CL        CD       CDp       CM     Top_Xtr  Bot_Xtr
  ------ -------- --------- --------- -------- -------- --------
  -4.000   0.0266   0.01018   0.00374  -0.1057   0.8806   0.0776
  -3.000   0.1587   0.00769   0.00321  -0.1128   0.8656   0.6271
  -2.500   0.2182   0.00785   0.00331  -0.1133   0.8589   0.6637
  -2.000   0.2761   0.00810   0.00359  -0.1133   0.8504   0.6955
  -1.500   0.3331   0.00831   0.00379  -0.1131   0.8424   0.7147
  -1.000   0.3908   0.00830   0.00375  -0.1132   0.8306   0.7220
  -0.500   0.4494   0.00833   0.00371  -0.1136   0.8176   0.7308
   0.000   0.5063   0.00832   0.00370  -0.1134   0.8027   0.7381
   0.500   0.5640   0.00833   0.00366  -0.1135   0.7857   0.7474
   1.000   0.6202   0.00833   0.00365  -0.1132   0.7659   0.7548
   1.500   0.6789   0.00837   0.00364  -0.1138   0.7480   0.7608
   2.000   0.7356   0.00838   0.00368  -0.1138   0.7239   0.7658
   2.500   0.7915   0.00847   0.00373  -0.1137   0.6894   0.7711
   3.000   0.8454   0.00879   0.00383  -0.1132   0.6238   0.7774
   3.500   0.8845   0.01019   0.00439  -0.1102   0.4453   0.7826
   4.000   0.9247   0.01175   0.00522  -0.1078   0.3001   0.7889
   4.500   0.9693   0.01296   0.00596  -0.1063   0.2088   0.7953
   5.000   1.0146   0.01392   0.00668  -0.1047   0.1590   0.8014
   5.500   1.0621   0.01476   0.00740  -0.1035   0.1306   0.8083
   6.000   1.1078   0.01558   0.00815  -0.1020   0.1122   0.8150
   6.500   1.1535   0.01638   0.00896  -0.1004   0.1004   0.8230
   7.000   1.1977   0.01718   0.00984  -0.0986   0.0911   0.8305
   7.500   1.2385   0.01818   0.01085  -0.0963   0.0825   0.8393
   8.000   1.2797   0.01897   0.01173  -0.0941   0.0757   0.8482
   8.500   1.3132   0.02002   0.01287  -0.0904   0.0697   0.8592
   9.000   1.3480   0.02100   0.01393  -0.0872   0.0641   0.8710
   9.500   1.3791   0.02231   0.01538  -0.0836   0.0592   0.8839
  10.000   1.4119   0.02347   0.01666  -0.0804   0.0546   0.8995
  10.000   1.4119   0.02347   0.01666  -0.0804   0.0546   0.8995
  10.250   1.4201   0.02462   0.01785  -0.0778   0.0519   0.9091
  10.500   1.4368   0.02508   0.01844  -0.0762   0.0504   0.9215
  10.750   1.4495   0.02562   0.01908  -0.0740   0.0486   0.9439
  11.000   1.4618   0.02628   0.01981  -0.0721   0.0469   1.0000
  11.250   1.4750   0.02742   0.02095  -0.0707   0.0449   1.0000
  11.500   1.4854   0.02880   0.02238  -0.0690   0.0433   1.0000
  11.750   1.5011   0.02972   0.02339  -0.0680   0.0421   1.0000
  12.000   1.5149   0.03077   0.02452  -0.0667   0.0407   1.0000
  12.250   1.5277   0.03189   0.02568  -0.0655   0.0395   1.0000
  12.500   1.5380   0.03323   0.02706  -0.0640   0.0383   1.0000
  12.750   1.5420   0.03514   0.02901  -0.0620   0.0371   1.0000
  13.000   1.5500   0.03673   0.03071  -0.0604   0.0363   1.0000
  13.250   1.5604   0.03812   0.03221  -0.0592   0.0356   1.0000
  13.500   1.5703   0.03954   0.03372  -0.0580   0.0346   1.0000
  13.750   1.5792   0.04105   0.03531  -0.0569   0.0337   1.0000
  14.000   1.5870   0.04268   0.03701  -0.0558   0.0329   1.0000
  14.250   1.5922   0.04461   0.03899  -0.0546   0.0321   1.0000
  14.500   1.5929   0.04700   0.04144  -0.0533   0.0314   1.0000
  14.750   1.5897   0.04985   0.04438  -0.0517   0.0307   1.0000
  15.000   1.5942   0.05199   0.04666  -0.0509   0.0303   1.0000
  15.250   1.5978   0.05431   0.04912  -0.0502   0.0299   1.0000
  15.500   1.6003   0.05681   0.05175  -0.0497   0.0293   1.0000
  15.750   1.6013   0.05955   0.05460  -0.0493   0.0288   1.0000
  16.000   1.6017   0.06244   0.05760  -0.0490   0.0283   1.0000
