  
       XFOIL         Version 6.99
  
 Calculated polar for: NASA/LANGLEY LS(1)-0413 (GA(W)-2) AIRFOIL       
  
 1 1 Reynolds number fixed          Mach number fixed         
  
 xtrf =   1.000 (top)        1.000 (bottom)  
 Mach =   0.000     Re =     0.150 e 6     Ncrit =   9.000
  
   alpha    CL        CD       CDp       CM     Top_Xtr  Bot_Xtr
  ------ -------- --------- --------- -------- -------- --------
-4.000  -0.1419   0.02113   0.01268  -0.0815   0.9508   0.0897
-3.500  -0.0577   0.01812   0.01234  -0.0897   0.9480   0.6275
-3.000  -0.0002   0.01941   0.01359  -0.0883   0.9411   0.7058
-2.500   0.0343   0.02073   0.01489  -0.0825   0.9299   0.7476
-2.000   0.0600   0.02218   0.01640  -0.0734   0.9194   0.7931
-1.500   0.1098   0.02251   0.01664  -0.0713   0.9110   0.8139
-1.000   0.1585   0.02282   0.01686  -0.0705   0.9007   0.8291
-0.500   0.2209   0.02285   0.01683  -0.0715   0.8936   0.8456
0.000   0.2732   0.02304   0.01699  -0.0717   0.8811   0.8586
0.500   0.3346   0.02285   0.01679  -0.0726   0.8685   0.8708
1.000   0.4173   0.02204   0.01599  -0.0768   0.8609   0.8797
1.500   0.4918   0.02117   0.01514  -0.0796   0.8461   0.8880
2.000   0.5643   0.01950   0.01352  -0.0804   0.8297   0.8953
2.500   0.6380   0.01808   0.01215  -0.0821   0.8125   0.9028
3.000   0.6923   0.01701   0.01118  -0.0803   0.7892   0.9116
3.500   0.7544   0.01581   0.01006  -0.0799   0.7648   0.9203
4.000   0.8102   0.01488   0.00919  -0.0785   0.7306   0.9303
4.500   0.8564   0.01421   0.00861  -0.0756   0.6741   0.9425
5.000   0.8987   0.01409   0.00792  -0.0718   0.5284   0.9558
5.500   0.9155   0.01624   0.00876  -0.0654   0.3225   0.9780
6.000   0.9495   0.01856   0.01036  -0.0636   0.2253   1.0000
6.500   0.9948   0.02069   0.01213  -0.0636   0.1839   1.0000
7.000   1.0464   0.02259   0.01393  -0.0645   0.1587   1.0000
7.500   1.1005   0.02465   0.01585  -0.0658   0.1406   1.0000
8.000   1.1557   0.02665   0.01785  -0.0671   0.1261   1.0000
8.500   1.2095   0.02871   0.02001  -0.0680   0.1139   1.0000
9.000   1.2622   0.03116   0.02261  -0.0687   0.1033   1.0000
9.500   1.3133   0.03397   0.02553  -0.0693   0.0941   1.0000
10.000   1.3558   0.03633   0.02803  -0.0684   0.0861   1.0000
10.250   1.3806   0.03858   0.03040  -0.0686   0.0827   1.0000
10.500   1.3950   0.04005   0.03217  -0.0670   0.0797   1.0000
10.750   1.4100   0.04147   0.03376  -0.0656   0.0768   1.0000
11.000   1.4276   0.04283   0.03513  -0.0648   0.0742   1.0000
11.250   1.4488   0.04591   0.03829  -0.0650   0.0717   1.0000
11.500   1.4505   0.04786   0.04063  -0.0617   0.0704   1.0000
11.750   1.4491   0.05012   0.04324  -0.0582   0.0691   1.0000
12.000   1.4468   0.05257   0.04599  -0.0550   0.0677   1.0000
12.250   1.4443   0.05499   0.04865  -0.0521   0.0665   1.0000
12.500   1.4440   0.05726   0.05109  -0.0497   0.0652   1.0000
12.750   1.4444   0.05948   0.05344  -0.0476   0.0640   1.0000
13.000   1.4453   0.06181   0.05587  -0.0459   0.0630   1.0000
13.250   1.4450   0.06511   0.05927  -0.0444   0.0620   1.0000
13.500   1.4292   0.06999   0.06439  -0.0423   0.0615   1.0000
13.750   1.4048   0.07459   0.06928  -0.0401   0.0613   1.0000
14.000   1.3776   0.07955   0.07453  -0.0387   0.0613   1.0000
14.250   1.3485   0.08527   0.08052  -0.0383   0.0613   1.0000
14.500   1.3177   0.09180   0.08729  -0.0390   0.0613   1.0000
15.000   0.7469   0.16982   0.16646  -0.0621   0.1103   1.0000
15.250   0.6947   0.17379   0.17040  -0.0699   0.1079   1.0000
15.500   0.6891   0.17673   0.17335  -0.0721   0.1034   1.0000
15.750   0.6953   0.17920   0.17583  -0.0727   0.1004   1.0000
16.000   0.7139   0.18169   0.17835  -0.0718   0.0981   1.0000
