  
       XFOIL         Version 6.99
  
 Calculated polar for: NASA/LANGLEY LS(1)-0413 (GA(W)-2) AIRFOIL       
  
 1 1 Reynolds number fixed          Mach number fixed         
  
 xtrf =   1.000 (top)        1.000 (bottom)  
 Mach =   0.000     Re =     0.300 e 6     Ncrit =   9.000
  
   alpha    CL        CD       CDp       CM     Top_Xtr  Bot_Xtr
  ------ -------- --------- --------- -------- -------- --------
  -4.000   0.0338   0.01136   0.00530  -0.1119   0.9151   0.3064
  -3.500   0.1002   0.01031   0.00538  -0.1149   0.9096   0.6282
  -3.000   0.1556   0.01066   0.00571  -0.1143   0.9001   0.6731
  -2.500   0.2107   0.01115   0.00621  -0.1131   0.8936   0.7095
  -2.000   0.2586   0.01184   0.00697  -0.1103   0.8843   0.7365
  -1.500   0.3178   0.01184   0.00687  -0.1107   0.8773   0.7477
  -1.000   0.3723   0.01201   0.00705  -0.1103   0.8678   0.7570
  -0.500   0.4287   0.01196   0.00695  -0.1098   0.8584   0.7669
   0.000   0.4860   0.01181   0.00675  -0.1096   0.8452   0.7769
   0.500   0.5392   0.01161   0.00654  -0.1081   0.8291   0.7848
   1.000   0.5976   0.01141   0.00627  -0.1082   0.8118   0.7931
   1.500   0.6522   0.01118   0.00606  -0.1075   0.7908   0.7984
   2.000   0.7085   0.01104   0.00595  -0.1073   0.7708   0.8049
   2.500   0.7669   0.01090   0.00578  -0.1075   0.7475   0.8112
   3.000   0.8200   0.01082   0.00574  -0.1066   0.7148   0.8171
   3.500   0.8739   0.01088   0.00571  -0.1060   0.6579   0.8241
   4.000   0.9136   0.01174   0.00589  -0.1025   0.5095   0.8304
   4.500   0.9432   0.01375   0.00691  -0.0983   0.3270   0.8380
   5.000   0.9794   0.01532   0.00791  -0.0954   0.2198   0.8453
   5.500   1.0193   0.01660   0.00889  -0.0931   0.1677   0.8531
   6.000   1.0601   0.01771   0.00988  -0.0908   0.1412   0.8615
   6.500   1.1007   0.01883   0.01096  -0.0886   0.1240   0.8710
   7.000   1.1389   0.01986   0.01201  -0.0858   0.1115   0.8804
   7.500   1.1775   0.02082   0.01310  -0.0832   0.1018   0.8914
   8.000   1.2076   0.02208   0.01443  -0.0791   0.0936   0.9052
   8.500   1.2391   0.02325   0.01567  -0.0754   0.0858   0.9216
   9.000   1.2691   0.02447   0.01707  -0.0715   0.0794   0.9459
   9.500   1.2998   0.02603   0.01867  -0.0686   0.0729   1.0000
  10.000   1.3401   0.02772   0.02054  -0.0676   0.0671   1.0000
  10.000   1.3401   0.02772   0.02054  -0.0676   0.0671   1.0000
  10.250   1.3580   0.02860   0.02144  -0.0669   0.0644   1.0000
  10.500   1.3738   0.03016   0.02294  -0.0658   0.0614   1.0000
  10.750   1.3907   0.03101   0.02395  -0.0648   0.0596   1.0000
  11.000   1.4065   0.03201   0.02505  -0.0637   0.0574   1.0000
  11.250   1.4210   0.03305   0.02614  -0.0626   0.0554   1.0000
  11.500   1.4342   0.03424   0.02734  -0.0614   0.0536   1.0000
  11.750   1.4475   0.03593   0.02907  -0.0600   0.0515   1.0000
  12.000   1.4596   0.03715   0.03045  -0.0587   0.0502   1.0000
  12.250   1.4709   0.03851   0.03193  -0.0573   0.0487   1.0000
  12.500   1.4815   0.03991   0.03343  -0.0559   0.0474   1.0000
  12.750   1.4915   0.04136   0.03494  -0.0546   0.0462   1.0000
  13.000   1.5008   0.04295   0.03658  -0.0533   0.0451   1.0000
  13.250   1.5108   0.04537   0.03904  -0.0519   0.0438   1.0000
  13.500   1.5158   0.04723   0.04110  -0.0504   0.0432   1.0000
  13.750   1.5198   0.04929   0.04336  -0.0489   0.0425   1.0000
  14.000   1.5226   0.05148   0.04573  -0.0475   0.0417   1.0000
  14.250   1.5241   0.05383   0.04824  -0.0463   0.0409   1.0000
  14.500   1.5248   0.05631   0.05087  -0.0451   0.0402   1.0000
  14.750   1.5247   0.05887   0.05358  -0.0441   0.0396   1.0000
  15.000   1.5242   0.06153   0.05635  -0.0433   0.0390   1.0000
  15.250   1.5235   0.06426   0.05919  -0.0427   0.0385   1.0000
  15.500   1.5228   0.06707   0.06207  -0.0421   0.0379   1.0000
  15.750   1.5193   0.07041   0.06551  -0.0417   0.0374   1.0000
  16.000   1.5072   0.07514   0.07042  -0.0413   0.0369   1.0000
