  
       XFOIL         Version 6.99
  
 Calculated polar for: NASA/LANGLEY LS(1)-0417 (GA(W)-1) AIRFOIL       
  
 1 1 Reynolds number fixed          Mach number fixed         
  
 xtrf =   1.000 (top)        1.000 (bottom)  
 Mach =   0.000     Re =     0.500 e 6     Ncrit =   9.000
  
   alpha    CL        CD       CDp       CM     Top_Xtr  Bot_Xtr
  ------ -------- --------- --------- -------- -------- --------
-4.000   0.0341   0.00895   0.00429  -0.1084   0.8103   0.5915
-3.500   0.0960   0.00915   0.00449  -0.1094   0.8052   0.6328
-3.000   0.1573   0.00936   0.00463  -0.1104   0.8006   0.6516
-2.500   0.2186   0.00962   0.00483  -0.1114   0.7959   0.6660
-2.000   0.2787   0.00989   0.00512  -0.1121   0.7908   0.6805
-1.500   0.3364   0.01018   0.00546  -0.1120   0.7856   0.6934
-1.000   0.3990   0.01029   0.00546  -0.1134   0.7799   0.7017
-0.500   0.4573   0.01028   0.00549  -0.1137   0.7713   0.7068
0.000   0.5163   0.01023   0.00535  -0.1139   0.7587   0.7137
0.500   0.5769   0.01016   0.00527  -0.1147   0.7464   0.7213
1.000   0.6353   0.01014   0.00525  -0.1150   0.7365   0.7258
1.500   0.6945   0.01008   0.00522  -0.1156   0.7245   0.7303
2.000   0.7544   0.00998   0.00511  -0.1164   0.7075   0.7350
2.500   0.8147   0.00995   0.00505  -0.1174   0.6897   0.7389
3.000   0.8718   0.00990   0.00500  -0.1175   0.6654   0.7420
3.500   0.9264   0.01003   0.00506  -0.1173   0.6250   0.7457
4.000   0.9700   0.01085   0.00538  -0.1150   0.5173   0.7494
4.500   1.0040   0.01237   0.00624  -0.1116   0.3964   0.7535
5.000   1.0385   0.01374   0.00713  -0.1084   0.3061   0.7574
5.500   1.0718   0.01493   0.00801  -0.1048   0.2419   0.7612
6.000   1.1022   0.01605   0.00892  -0.1006   0.1983   0.7652
6.500   1.1306   0.01720   0.00991  -0.0963   0.1676   0.7697
7.000   1.1661   0.01840   0.01102  -0.0936   0.1465   0.7741
7.500   1.1995   0.01967   0.01227  -0.0907   0.1308   0.7782
8.000   1.2334   0.02101   0.01361  -0.0880   0.1194   0.7831
8.500   1.2675   0.02245   0.01505  -0.0856   0.1100   0.7890
9.000   1.2984   0.02408   0.01667  -0.0830   0.1024   0.7939
9.500   1.3325   0.02551   0.01820  -0.0808   0.0969   0.7992
10.000   1.3609   0.02744   0.02016  -0.0782   0.0919   0.8054
10.250   1.3781   0.02823   0.02099  -0.0773   0.0898   0.8083
10.500   1.3935   0.02907   0.02189  -0.0762   0.0877   0.8112
10.750   1.4061   0.03014   0.02297  -0.0748   0.0856   0.8142
11.000   1.4165   0.03140   0.02425  -0.0733   0.0836   0.8176
11.250   1.4327   0.03226   0.02520  -0.0724   0.0819   0.8215
11.750   1.4615   0.03424   0.02729  -0.0703   0.0783   0.8285
12.000   1.4711   0.03558   0.02864  -0.0689   0.0765   0.8320
12.250   1.4815   0.03690   0.03002  -0.0676   0.0749   0.8358
12.500   1.4959   0.03795   0.03115  -0.0667   0.0734   0.8398
12.750   1.5092   0.03907   0.03235  -0.0658   0.0716   0.8436
13.000   1.5206   0.04033   0.03365  -0.0647   0.0700   0.8475
13.250   1.5273   0.04201   0.03535  -0.0634   0.0683   0.8516
13.500   1.5389   0.04335   0.03678  -0.0625   0.0668   0.8562
13.750   1.5508   0.04467   0.03820  -0.0617   0.0652   0.8605
14.000   1.5615   0.04607   0.03968  -0.0608   0.0636   0.8652
14.250   1.5696   0.04778   0.04142  -0.0598   0.0622   0.8705
14.500   1.5742   0.04983   0.04350  -0.0587   0.0606   0.8755
14.750   1.5849   0.05128   0.04510  -0.0580   0.0592   0.8809
15.000   1.5937   0.05301   0.04691  -0.0573   0.0576   0.8868
15.250   1.6013   0.05486   0.04882  -0.0566   0.0562   0.8927
15.500   1.6026   0.05732   0.05132  -0.0557   0.0548   0.8990
15.750   1.6101   0.05928   0.05339  -0.0551   0.0535   0.9062
16.000   1.6162   0.06131   0.05555  -0.0545   0.0521   0.9150
16.250   1.6205   0.06346   0.05780  -0.0538   0.0509   0.9266
16.500   1.6171   0.06561   0.06005  -0.0521   0.0500   0.9807
17.000   1.6211   0.07147   0.06605  -0.0522   0.0479   1.0000
17.250   1.6245   0.07433   0.06901  -0.0524   0.0468   1.0000
17.500   1.6264   0.07739   0.07215  -0.0527   0.0458   1.0000
17.750   1.6268   0.08064   0.07547  -0.0532   0.0450   1.0000
18.000   1.6242   0.08430   0.07917  -0.0537   0.0442   1.0000
18.250   1.6195   0.08822   0.08315  -0.0542   0.0435   1.0000
18.750   1.6162   0.09565   0.09083  -0.0559   0.0421   1.0000
19.250   1.6094   0.10368   0.09905  -0.0582   0.0408   1.0000
19.750   1.5997   0.11226   0.10777  -0.0613   0.0397   1.0000
20.250   1.5880   0.12109   0.11673  -0.0647   0.0386   1.0000
20.750   1.5757   0.13055   0.12645  -0.0693   0.0377   1.0000
21.250   1.5643   0.13997   0.13609  -0.0743   0.0367   1.0000
21.750   1.5544   0.14928   0.14556  -0.0799   0.0359   1.0000
22.250   1.5480   0.15789   0.15427  -0.0854   0.0351   1.0000
