  
       XFOIL         Version 6.99
  
 Calculated polar for: NASA/LANGLEY LS(1)-0417 (GA(W)-1) AIRFOIL       
  
 1 1 Reynolds number fixed          Mach number fixed         
  
 xtrf =   1.000 (top)        1.000 (bottom)  
 Mach =   0.000     Re =     0.400 e 6     Ncrit =   9.000
  
   alpha    CL        CD       CDp       CM     Top_Xtr  Bot_Xtr
  ------ -------- --------- --------- -------- -------- --------
-4.000   0.0313   0.01022   0.00541  -0.1082   0.8236   0.6173
-3.500   0.0924   0.01054   0.00565  -0.1090   0.8190   0.6465
-3.000   0.1528   0.01089   0.00595  -0.1098   0.8141   0.6643
-2.500   0.2115   0.01127   0.00633  -0.1101   0.8086   0.6802
-2.000   0.2678   0.01164   0.00674  -0.1096   0.8035   0.6933
-1.500   0.3266   0.01196   0.00702  -0.1098   0.7989   0.7057
-1.000   0.3844   0.01220   0.00728  -0.1101   0.7932   0.7123
-0.500   0.4469   0.01213   0.00714  -0.1116   0.7847   0.7200
0.000   0.5030   0.01217   0.00717  -0.1110   0.7759   0.7263
0.500   0.5612   0.01193   0.00689  -0.1109   0.7614   0.7334
1.000   0.6229   0.01182   0.00675  -0.1122   0.7500   0.7394
1.500   0.6813   0.01168   0.00659  -0.1124   0.7393   0.7432
2.000   0.7391   0.01153   0.00649  -0.1126   0.7242   0.7475
2.500   0.7987   0.01137   0.00633  -0.1133   0.7066   0.7522
3.000   0.8595   0.01124   0.00616  -0.1145   0.6858   0.7564
3.500   0.9143   0.01117   0.00612  -0.1141   0.6564   0.7596
4.000   0.9660   0.01133   0.00615  -0.1132   0.5999   0.7632
4.500   1.0005   0.01254   0.00666  -0.1094   0.4723   0.7672
5.000   1.0300   0.01413   0.00765  -0.1053   0.3625   0.7717
5.500   1.0585   0.01554   0.00863  -0.1011   0.2826   0.7759
6.000   1.0817   0.01681   0.00965  -0.0957   0.2277   0.7798
6.500   1.1087   0.01815   0.01079  -0.0914   0.1886   0.7844
7.000   1.1423   0.01956   0.01205  -0.0887   0.1614   0.7894
7.500   1.1739   0.02102   0.01345  -0.0858   0.1431   0.7937
8.000   1.2055   0.02251   0.01494  -0.0829   0.1299   0.7985
8.500   1.2384   0.02407   0.01652  -0.0805   0.1200   0.8046
9.000   1.2700   0.02576   0.01821  -0.0782   0.1115   0.8098
9.500   1.3004   0.02745   0.01994  -0.0757   0.1047   0.8151
10.000   1.3315   0.02924   0.02182  -0.0735   0.0993   0.8215
10.250   1.3477   0.03016   0.02276  -0.0726   0.0968   0.8248
10.500   1.3599   0.03124   0.02385  -0.0712   0.0944   0.8276
10.750   1.3718   0.03237   0.02502  -0.0697   0.0923   0.8307
11.000   1.3873   0.03325   0.02600  -0.0687   0.0902   0.8344
11.250   1.4021   0.03425   0.02704  -0.0678   0.0881   0.8385
11.500   1.4155   0.03538   0.02819  -0.0668   0.0861   0.8423
11.750   1.4237   0.03680   0.02960  -0.0651   0.0840   0.8455
12.000   1.4379   0.03780   0.03072  -0.0641   0.0824   0.8493
12.250   1.4513   0.03891   0.03192  -0.0631   0.0805   0.8534
12.500   1.4641   0.04012   0.03318  -0.0623   0.0786   0.8577
12.750   1.4742   0.04146   0.03454  -0.0611   0.0769   0.8615
13.000   1.4820   0.04301   0.03612  -0.0596   0.0752   0.8656
13.250   1.4946   0.04426   0.03750  -0.0589   0.0735   0.8705
13.500   1.5062   0.04564   0.03896  -0.0581   0.0716   0.8753
13.750   1.5154   0.04711   0.04050  -0.0571   0.0700   0.8802
14.000   1.5223   0.04886   0.04224  -0.0560   0.0683   0.8858
14.250   1.5311   0.05052   0.04402  -0.0551   0.0667   0.8915
14.500   1.5400   0.05210   0.04574  -0.0542   0.0651   0.8976
14.750   1.5483   0.05389   0.04760  -0.0536   0.0635   0.9043
15.000   1.5542   0.05576   0.04953  -0.0527   0.0621   0.9111
15.250   1.5581   0.05790   0.05169  -0.0517   0.0607   0.9191
15.500   1.5635   0.05980   0.05376  -0.0508   0.0593   0.9300
15.750   1.5653   0.06164   0.05574  -0.0493   0.0579   0.9543
16.000   1.5692   0.06382   0.05799  -0.0489   0.0566   1.0000
16.250   1.5739   0.06642   0.06061  -0.0490   0.0554   1.0000
16.500   1.5773   0.06913   0.06336  -0.0489   0.0541   1.0000
16.750   1.5815   0.07192   0.06629  -0.0492   0.0529   1.0000
17.000   1.5849   0.07479   0.06925  -0.0495   0.0517   1.0000
17.250   1.5875   0.07773   0.07226  -0.0498   0.0507   1.0000
17.500   1.5886   0.08087   0.07544  -0.0502   0.0498   1.0000
17.750   1.5885   0.08395   0.07851  -0.0503   0.0488   1.0000
18.000   1.5879   0.08753   0.08226  -0.0510   0.0480   1.0000
18.250   1.5868   0.09113   0.08600  -0.0518   0.0472   1.0000
18.750   1.5837   0.09851   0.09357  -0.0537   0.0456   1.0000
19.250   1.5805   0.10593   0.10110  -0.0560   0.0443   1.0000
19.750   1.5744   0.11375   0.10909  -0.0586   0.0431   1.0000
20.250   1.5626   0.12303   0.11867  -0.0628   0.0420   1.0000
20.750   1.5526   0.13218   0.12804  -0.0675   0.0408   1.0000
21.250   1.5472   0.14058   0.13656  -0.0723   0.0398   1.0000
21.750   1.5503   0.14687   0.14287  -0.0757   0.0388   1.0000
22.250   1.5257   0.15953   0.15591  -0.0844   0.0382   1.0000
