  
       XFOIL         Version 6.99
  
 Calculated polar for: NASA/LANGLEY LS(1)-0413 (GA(W)-2) AIRFOIL       
  
 1 1 Reynolds number fixed          Mach number fixed         
  
 xtrf =   1.000 (top)        1.000 (bottom)  
 Mach =   0.000     Re =     0.200 e 6     Ncrit =   9.000
  
   alpha    CL        CD       CDp       CM     Top_Xtr  Bot_Xtr
  ------ -------- --------- --------- -------- -------- --------
  -4.000  -0.0483   0.01708   0.00930  -0.0975   0.9308   0.1002
  -3.500   0.0370   0.01467   0.00927  -0.1056   0.9285   0.6501
  -3.000   0.1045   0.01529   0.00984  -0.1066   0.9246   0.7005
  -2.500   0.1389   0.01655   0.01117  -0.1005   0.9128   0.7385
  -1.500   0.2422   0.01748   0.01203  -0.0969   0.8968   0.7807
  -1.000   0.3100   0.01740   0.01187  -0.0989   0.8925   0.7947
  -0.500   0.3529   0.01773   0.01223  -0.0962   0.8805   0.8061
   0.000   0.4108   0.01754   0.01203  -0.0962   0.8703   0.8160
   0.500   0.4819   0.01679   0.01124  -0.0983   0.8609   0.8266
   1.000   0.5373   0.01612   0.01059  -0.0969   0.8456   0.8344
   1.500   0.6025   0.01530   0.00974  -0.0977   0.8287   0.8422
   2.000   0.6556   0.01466   0.00914  -0.0960   0.8084   0.8488
   2.500   0.7151   0.01418   0.00870  -0.0963   0.7862   0.8563
   3.000   0.7703   0.01361   0.00815  -0.0951   0.7631   0.8631
   3.500   0.8256   0.01326   0.00786  -0.0945   0.7283   0.8710
   4.000   0.8747   0.01295   0.00757  -0.0924   0.6748   0.8787
   4.500   0.9197   0.01335   0.00737  -0.0898   0.5340   0.8875
   5.000   0.9372   0.01539   0.00829  -0.0830   0.3389   0.8972
   5.500   0.9636   0.01727   0.00949  -0.0786   0.2285   0.9074
   6.000   0.9964   0.01872   0.01064  -0.0752   0.1808   0.9198
   6.500   1.0299   0.02006   0.01183  -0.0718   0.1558   0.9336
   7.000   1.0627   0.02127   0.01301  -0.0683   0.1387   0.9522
   7.500   1.0995   0.02236   0.01414  -0.0657   0.1253   1.0000
   8.000   1.1506   0.02396   0.01579  -0.0665   0.1131   1.0000
   8.500   1.2008   0.02579   0.01769  -0.0670   0.1023   1.0000
   9.000   1.2498   0.02788   0.01984  -0.0673   0.0930   1.0000
   9.500   1.3001   0.03033   0.02220  -0.0679   0.0839   1.0000
  10.000   1.3361   0.03209   0.02430  -0.0659   0.0776   1.0000
  10.000   1.3361   0.03209   0.02430  -0.0659   0.0776   1.0000
  10.250   1.3551   0.03310   0.02529  -0.0652   0.0746   1.0000
  10.500   1.3795   0.03485   0.02708  -0.0653   0.0712   1.0000
  10.750   1.3932   0.03594   0.02838  -0.0637   0.0688   1.0000
  11.000   1.4080   0.03717   0.02974  -0.0624   0.0664   1.0000
  11.250   1.4234   0.03836   0.03099  -0.0612   0.0642   1.0000
  11.500   1.4456   0.04019   0.03278  -0.0611   0.0619   1.0000
  11.750   1.4563   0.04218   0.03502  -0.0594   0.0603   1.0000
  12.000   1.4628   0.04385   0.03694  -0.0572   0.0588   1.0000
  12.250   1.4693   0.04556   0.03885  -0.0551   0.0572   1.0000
  12.500   1.4750   0.04730   0.04075  -0.0532   0.0558   1.0000
  12.750   1.4816   0.04907   0.04263  -0.0515   0.0547   1.0000
  13.000   1.4897   0.05091   0.04455  -0.0500   0.0536   1.0000
  13.250   1.4992   0.05352   0.04723  -0.0489   0.0525   1.0000
  13.500   1.4939   0.05730   0.05127  -0.0468   0.0517   1.0000
  13.750   1.4823   0.06040   0.05468  -0.0443   0.0514   1.0000
  14.000   1.4678   0.06400   0.05859  -0.0422   0.0510   1.0000
  14.250   1.4502   0.06814   0.06302  -0.0406   0.0506   1.0000
  14.500   1.4294   0.07286   0.06804  -0.0395   0.0504   1.0000
  14.750   1.4050   0.07828   0.07375  -0.0392   0.0502   1.0000
  15.000   1.3769   0.08457   0.08031  -0.0399   0.0501   1.0000
  15.250   1.3440   0.09207   0.08809  -0.0419   0.0501   1.0000
  15.500   1.3062   0.10128   0.09758  -0.0460   0.0503   1.0000
  15.750   1.2609   0.11334   0.10990  -0.0529   0.0508   1.0000
  16.000   1.2006   0.13091   0.12770  -0.0648   0.0515   1.0000
