  
       XFOIL         Version 6.99
  
 Calculated polar for: NASA/LANGLEY LS(1)-0417 (GA(W)-1) AIRFOIL       
  
 1 1 Reynolds number fixed          Mach number fixed         
  
 xtrf =   1.000 (top)        1.000 (bottom)  
 Mach =   0.000     Re =     0.200 e 6     Ncrit =   9.000
  
   alpha    CL        CD       CDp       CM     Top_Xtr  Bot_Xtr
  ------ -------- --------- --------- -------- -------- --------
-4.000  -0.0183   0.01856   0.01310  -0.1026   0.8675   0.6622
-3.500   0.0341   0.01955   0.01404  -0.1005   0.8622   0.6836
-3.000   0.0881   0.02052   0.01495  -0.0984   0.8584   0.7027
-2.500   0.1104   0.02226   0.01675  -0.0917   0.8466   0.7171
-2.000   0.1576   0.02312   0.01760  -0.0879   0.8414   0.7326
-1.500   0.2173   0.02329   0.01770  -0.0877   0.8380   0.7444
-1.000   0.2514   0.02419   0.01858  -0.0857   0.8247   0.7573
-0.500   0.3099   0.02399   0.01836  -0.0844   0.8201   0.7650
0.500   0.4132   0.02414   0.01851  -0.0828   0.8018   0.7852
1.500   0.5470   0.02209   0.01642  -0.0849   0.7815   0.7987
2.000   0.6146   0.02116   0.01547  -0.0868   0.7677   0.8056
2.500   0.6901   0.01972   0.01398  -0.0893   0.7584   0.8103
3.000   0.7437   0.01906   0.01340  -0.0883   0.7417   0.8148
3.500   0.8075   0.01807   0.01241  -0.0892   0.7223   0.8204
4.000   0.8759   0.01725   0.01159  -0.0917   0.6995   0.8250
4.500   0.9212   0.01671   0.01116  -0.0891   0.6674   0.8295
5.000   0.9705   0.01633   0.01076  -0.0876   0.6155   0.8339
5.500   1.0112   0.01674   0.01054  -0.0848   0.4999   0.8389
6.000   1.0234   0.01849   0.01156  -0.0778   0.3830   0.8445
6.500   1.0271   0.02036   0.01299  -0.0699   0.3010   0.8500
7.000   1.0483   0.02257   0.01482  -0.0662   0.2407   0.8559
7.500   1.0736   0.02460   0.01662  -0.0632   0.2035   0.8611
8.000   1.1012   0.02643   0.01835  -0.0603   0.1790   0.8674
8.500   1.1354   0.02835   0.02019  -0.0588   0.1615   0.8744
9.000   1.1656   0.03008   0.02189  -0.0561   0.1490   0.8805
9.500   1.2023   0.03191   0.02362  -0.0547   0.1387   0.8876
10.000   1.2363   0.03348   0.02533  -0.0529   0.1301   0.8950
10.250   1.2565   0.03437   0.02610  -0.0522   0.1260   0.8992
10.500   1.2733   0.03527   0.02716  -0.0515   0.1225   0.9042
10.750   1.2881   0.03606   0.02802  -0.0503   0.1191   0.9090
11.000   1.3046   0.03692   0.02886  -0.0493   0.1161   0.9142
11.250   1.3259   0.03788   0.02981  -0.0490   0.1129   0.9192
11.500   1.3377   0.03877   0.03087  -0.0475   0.1102   0.9249
11.750   1.3524   0.03973   0.03188  -0.0465   0.1073   0.9314
12.000   1.3671   0.04055   0.03268  -0.0453   0.1047   0.9385
12.750   1.4001   0.04348   0.03594  -0.0409   0.0974   1.0000
13.000   1.4198   0.04470   0.03712  -0.0413   0.0948   1.0000
13.250   1.4408   0.04612   0.03856  -0.0416   0.0921   1.0000
13.500   1.4507   0.04792   0.04056  -0.0413   0.0897   1.0000
13.750   1.4634   0.04953   0.04225  -0.0412   0.0872   1.0000
14.000   1.4820   0.05080   0.04344  -0.0414   0.0849   1.0000
14.250   1.4951   0.05267   0.04542  -0.0411   0.0827   1.0000
14.500   1.4991   0.05490   0.04787  -0.0405   0.0807   1.0000
14.750   1.5070   0.05685   0.04992  -0.0401   0.0787   1.0000
15.000   1.5211   0.05835   0.05137  -0.0400   0.0768   1.0000
15.250   1.5344   0.06022   0.05327  -0.0397   0.0749   1.0000
15.500   1.5301   0.06316   0.05647  -0.0389   0.0734   1.0000
15.750   1.5291   0.06593   0.05943  -0.0383   0.0718   1.0000
16.000   1.5328   0.06830   0.06188  -0.0380   0.0703   1.0000
