  
       XFOIL         Version 6.99
  
 Calculated polar for: NASA/LANGLEY RC-10(N)1 AIRFOIL                  
  
 1 1 Reynolds number fixed          Mach number fixed         
  
 xtrf =   1.000 (top)        1.000 (bottom)  
 Mach =   0.000     Re =     0.300 e 6     Ncrit =   9.000
  
   alpha    CL        CD       CDp       CM     Top_Xtr  Bot_Xtr
  ------ -------- --------- --------- -------- -------- --------
  -4.000  -0.3532   0.02389   0.01752  -0.0095   0.8328   0.0650
  -3.500  -0.3032   0.02140   0.01463  -0.0083   0.8206   0.0817
  -3.000  -0.2396   0.01574   0.00814  -0.0052   0.8106   0.0347
  -2.500  -0.1885   0.01400   0.00625  -0.0038   0.7999   0.0352
  -2.000  -0.1379   0.01281   0.00499  -0.0026   0.7887   0.0398
  -1.500  -0.0863   0.01188   0.00398  -0.0017   0.7776   0.0553
  -1.000  -0.0614   0.00828   0.00340   0.0045   0.7671   0.8198
  -0.500   0.0338   0.00878   0.00391  -0.0017   0.7578   0.9663
   0.500   0.2068   0.00895   0.00373  -0.0152   0.7334   1.0000
   1.000   0.2593   0.00889   0.00356  -0.0150   0.7202   1.0000
   1.500   0.3121   0.00885   0.00346  -0.0146   0.7066   1.0000
   2.000   0.3646   0.00884   0.00341  -0.0142   0.6929   1.0000
   2.500   0.4169   0.00884   0.00340  -0.0137   0.6779   1.0000
   3.000   0.4681   0.00875   0.00327  -0.0127   0.6554   1.0000
   3.500   0.5194   0.00868   0.00320  -0.0117   0.6293   1.0000
   4.000   0.5709   0.00870   0.00324  -0.0109   0.5990   1.0000
   4.500   0.6220   0.00881   0.00337  -0.0100   0.5613   1.0000
   5.000   0.6719   0.00911   0.00354  -0.0090   0.4934   1.0000
   5.500   0.7182   0.01002   0.00402  -0.0078   0.3722   1.0000
   6.000   0.7587   0.01191   0.00508  -0.0064   0.1993   1.0000
   6.500   0.7986   0.01373   0.00641  -0.0048   0.1066   1.0000
   7.000   0.8391   0.01526   0.00779  -0.0030   0.0719   1.0000
   7.500   0.8787   0.01678   0.00936  -0.0008   0.0546   1.0000
   8.000   0.9154   0.01863   0.01129   0.0017   0.0440   1.0000
   8.500   0.9516   0.02056   0.01330   0.0040   0.0362   1.0000
   9.000   0.9883   0.02267   0.01563   0.0064   0.0312   1.0000
   9.500   1.0232   0.02507   0.01817   0.0087   0.0270   1.0000
  10.000   1.0553   0.02904   0.02256   0.0112   0.0242   1.0000
  10.000   1.0553   0.02904   0.02256   0.0112   0.0242   1.0000
  10.250   1.0715   0.03027   0.02397   0.0124   0.0226   1.0000
  10.500   1.0859   0.03177   0.02563   0.0136   0.0213   1.0000
  10.750   1.0981   0.03344   0.02748   0.0149   0.0203   1.0000
  11.000   1.1081   0.03528   0.02946   0.0163   0.0195   1.0000
  11.250   1.1131   0.03795   0.03235   0.0180   0.0189   1.0000
  11.500   1.1065   0.04191   0.03662   0.0204   0.0184   1.0000
  12.000   1.0741   0.05045   0.04578   0.0239   0.0179   1.0000
  12.250   1.0676   0.05284   0.04839   0.0242   0.0176   1.0000
  12.500   1.0569   0.05633   0.05211   0.0239   0.0174   1.0000
  12.750   1.0428   0.06063   0.05663   0.0229   0.0172   1.0000
  13.000   1.0247   0.06589   0.06211   0.0211   0.0172   1.0000
  13.250   1.0038   0.07206   0.06846   0.0183   0.0172   1.0000
  13.500   0.9796   0.07936   0.07595   0.0145   0.0174   1.0000
  14.000   0.8206   0.13195   0.12904  -0.0161   0.0238   1.0000
  14.250   0.8079   0.14040   0.13745  -0.0197   0.0247   1.0000
