  
       XFOIL         Version 6.99
  
 Calculated polar for: NASA/LANGLEY RC-10(N)1 AIRFOIL                  
  
 1 1 Reynolds number fixed          Mach number fixed         
  
 xtrf =   1.000 (top)        1.000 (bottom)  
 Mach =   0.000     Re =     0.600 e 6     Ncrit =   9.000
  
   alpha    CL        CD       CDp       CM     Top_Xtr  Bot_Xtr
  ------ -------- --------- --------- -------- -------- --------
-4.000  -0.3642   0.01761   0.01127  -0.0009   0.7742   0.0230
-3.500  -0.3093   0.01624   0.00969  -0.0003   0.7645   0.0222
-3.000  -0.2564   0.01358   0.00682   0.0005   0.7558   0.0220
-2.500  -0.2060   0.01158   0.00470   0.0017   0.7465   0.0227
-2.000  -0.1554   0.01025   0.00325   0.0028   0.7372   0.0250
-1.500  -0.1012   0.00972   0.00263   0.0032   0.7280   0.0311
-1.000  -0.0552   0.00774   0.00183   0.0044   0.7180   0.3960
-0.500  -0.0169   0.00606   0.00169   0.0081   0.7077   0.7991
0.000   0.0448   0.00596   0.00190   0.0079   0.6969   0.9496
0.500   0.1324   0.00631   0.00211   0.0015   0.6854   0.9787
1.000   0.2056   0.00640   0.00209  -0.0024   0.6729   0.9874
1.500   0.2792   0.00646   0.00209  -0.0065   0.6598   0.9948
2.000   0.3540   0.00647   0.00206  -0.0110   0.6452   1.0000
2.500   0.4077   0.00643   0.00198  -0.0108   0.6208   1.0000
3.000   0.4617   0.00646   0.00197  -0.0106   0.5957   1.0000
3.500   0.5154   0.00655   0.00201  -0.0105   0.5655   1.0000
4.000   0.5685   0.00672   0.00211  -0.0102   0.5288   1.0000
4.500   0.6205   0.00714   0.00231  -0.0099   0.4505   1.0000
5.000   0.6702   0.00804   0.00276  -0.0095   0.3360   1.0000
5.500   0.7169   0.00931   0.00346  -0.0089   0.2050   1.0000
6.000   0.7618   0.01056   0.00425  -0.0079   0.1124   1.0000
6.500   0.8074   0.01150   0.00502  -0.0066   0.0724   1.0000
7.000   0.8529   0.01238   0.00586  -0.0053   0.0512   1.0000
7.500   0.8972   0.01336   0.00683  -0.0038   0.0380   1.0000
8.000   0.9407   0.01438   0.00795  -0.0022   0.0303   1.0000
8.500   0.9800   0.01583   0.00949  -0.0000   0.0245   1.0000
9.000   1.0214   0.01696   0.01075   0.0017   0.0210   1.0000
9.500   1.0529   0.01921   0.01316   0.0046   0.0176   1.0000
10.000   1.0920   0.02054   0.01466   0.0064   0.0157   1.0000
10.250   1.1100   0.02134   0.01553   0.0074   0.0147   1.0000
10.500   1.1271   0.02217   0.01642   0.0084   0.0138   1.0000
10.750   1.1367   0.02382   0.01819   0.0101   0.0128   1.0000
11.000   1.1445   0.02576   0.02030   0.0121   0.0120   1.0000
11.250   1.1587   0.02649   0.02114   0.0134   0.0116   1.0000
11.500   1.1687   0.02766   0.02243   0.0149   0.0111   1.0000
11.750   1.1774   0.02902   0.02392   0.0163   0.0106   1.0000
12.000   1.1856   0.03048   0.02551   0.0173   0.0102   1.0000
12.250   1.1935   0.03201   0.02714   0.0181   0.0098   1.0000
12.500   1.2009   0.03360   0.02882   0.0187   0.0094   1.0000
12.750   1.2058   0.03550   0.03081   0.0192   0.0090   1.0000
13.000   1.2032   0.03837   0.03382   0.0198   0.0087   1.0000
13.250   1.1879   0.04287   0.03858   0.0205   0.0083   1.0000
13.500   1.1741   0.04734   0.04330   0.0204   0.0082   1.0000
13.750   1.1757   0.04995   0.04605   0.0198   0.0080   1.0000
14.000   1.1734   0.05319   0.04946   0.0189   0.0079   1.0000
14.250   1.1669   0.05713   0.05357   0.0177   0.0077   1.0000
14.500   1.1577   0.06165   0.05825   0.0161   0.0076   1.0000
14.750   1.1446   0.06698   0.06376   0.0138   0.0075   1.0000
15.000   1.1295   0.07300   0.06994   0.0109   0.0075   1.0000
15.250   1.1113   0.08013   0.07725   0.0071   0.0075   1.0000
15.500   1.0904   0.08828   0.08556   0.0026   0.0075   1.0000
15.750   1.0641   0.09811   0.09557  -0.0030   0.0076   1.0000
16.000   1.0296   0.11030   0.10791  -0.0098   0.0078   1.0000
